#531363Trace
Swept SA
A.16.05,N9030A
526 B1X B1Y B25 B40 DP2 EP1 ESC FS1 FSA FT2 LFE MPB NFE NUL PFR RT2 RTL YAV ,01
Segment,0
Number of Points,1001
Sweep Time,0.062266666667
Start Frequency,100000000
Stop Frequency,25000000000
Average Count,1
Average Type,LogPower(Video)
RBW,300000
RBW Filter,Gaussian
RBW Filter BW,3dB
VBW,300000
Sweep Type,Swept
X Axis Scale,Lin
PreAmp State,Off
PreAmp Band,Low
Trigger Source,Free
Trigger Level,1.2
Trigger Slope,Positive
Trigger Delay,0
Phase Noise Optimization,Fast
Swept If Gain,Low
FFT If Gain,Autorange
RF Coupling,AC
FFT Width,411900
Ext Ref,10000000
Input,RF
RF Calibrator,Off
Attenuation,10
Ref Level Offset,0
External Gain,0
Trace Type,Clearwrite
Detector,Normal
Trace Math,Off
Trace Math Oper1,Trace5
Trace Math Oper2,Trace6
Trace Math Offset,0
Normalize,Off
Trace Name,Trace1
X Axis Units,Hz
Y Axis Units,dBm
DATA
100000000,-80.7421646118164
124900000,-118.004989624023
149800000,-81.7825317382813
174700000,-125.456207275391
199600000,-81.2263259887695
224500000,-122.03670501709
249400000,-82.7848892211914
274300000,-109.421836853027
299200000,-82.6647644042969
324100000,-116.267730712891
349000000,-82.3502731323242
373900000,-120.244941711426
398800000,-81.7328186035156
423700000,-120.347267150879
448600000,-82.2115631103516
473500000,-119.853126525879
498400000,-80.3245162963867
523300000,-120.034446716309
548200000,-80.6896820068359
573100000,-115.759765625
598000000,-81.5368499755859
622900000,-130.18278503418
647800000,-81.3703460693359
672700000,-133.076278686523
697600000,-82.7875595092773
722500000,-120.99560546875
747400000,-80.2830200195313
772300000,-125.069274902344
797200000,-81.776008605957
822100000,-117.647155761719
847000000,-79.1030502319336
871900000,-121.223457336426
896800000,-80.8150787353516
921700000,-124.324806213379
946600000,-80.9540328979492
971500000,-118.52481842041
996400000,-80.3910369873047
1021300000,-115.294250488281
1046200000,-81.384651184082
1071100000,-127.536087036133
1096000000,-81.3477249145508
1120900000,-118.80290222168
1145800000,-79.2183609008789
1170700000,-127.74388885498
1195600000,-80.3982086181641
1220500000,-124.851272583008
1245400000,-78.4192733764648
1270300000,-110.091987609863
1295200000,-79.4048614501953
1320100000,-124.797370910645
1345000000,-80.3222961425781
1369900000,-113.052635192871
1394800000,-80.4259872436523
1419700000,-119.426254272461
1444600000,-79.419303894043
1469500000,-122.355926513672
1494400000,-79.3775482177734
1519300000,-112.004890441895
1544200000,-78.8925933837891
1569100000,-114.623275756836
1594000000,-79.2460784912109
1618900000,-125.086402893066
1643800000,-78.587776184082
1668700000,-118.932189941406
1693600000,-78.8662185668945
1718500000,-118.326179504395
1743400000,-77.3252868652344
1768300000,-113.265937805176
1793200000,-77.7505187988281
1818100000,-113.869125366211
1843000000,-79.8908615112305
1867900000,-118.980346679688
1892800000,-78.6450576782227
1917700000,-113.160720825195
1942600000,-78.7951965332031
1967500000,-118.012741088867
1992400000,-77.6210174560547
2017300000,-113.224464416504
2042200000,-79.7174224853516
2067100000,-110.522277832031
2092000000,-78.6496047973633
2116900000,-120.862548828125
2141800000,-78.491943359375
2166700000,-112.671180725098
2191600000,-77.75830078125
2216500000,-133.069381713867
2241400000,-77.1618804931641
2266300000,-118.141944885254
2291200000,-76.2686157226563
2316100000,-111.484718322754
2341000000,-76.7675323486328
2365900000,-117.202850341797
2390800000,-77.222541809082
2415700000,-115.076919555664
2440600000,-77.2532730102539
2465500000,-110.907371520996
2490400000,-76.9616928100586
2515300000,-113.889030456543
2540200000,-77.0882110595703
2565100000,-108.18726348877
2590000000,-76.9598617553711
2614900000,-118.277603149414
2639800000,-76.9963836669922
2664700000,-117.051162719727
2689600000,-75.606071472168
2714500000,-120.42707824707
2739400000,-76.7731475830078
2764300000,-126.348770141602
2789200000,-76.7965927124023
2814100000,-110.356292724609
2839000000,-75.6779327392578
2863900000,-115.727088928223
2888800000,-77.9223709106445
2913700000,-114.804656982422
2938600000,-75.5579833984375
2963500000,-120.249755859375
2988400000,-77.1439056396484
3013300000,-113.195213317871
3038200000,-74.5517425537109
3063100000,-118.862586975098
3088000000,-76.1690216064453
3112900000,-124.703033447266
3137800000,-74.9592819213867
3162700000,-111.160583496094
3187600000,-76.2639389038086
3212500000,-118.394966125488
3237400000,-76.5191268920898
3262300000,-113.247909545898
3287200000,-76.1483459472656
3312100000,-121.088432312012
3337000000,-77.8915481567383
3361900000,-119.419761657715
3386800000,-75.4398651123047
3411700000,-121.401168823242
3436600000,-76.2172927856445
3461500000,-114.518501281738
3486400000,-77.4745330810547
3511300000,-115.581932067871
3536200000,-76.1053924560547
3561100000,-123.895820617676
3586000000,-76.1566314697266
3610900000,-111.244834899902
3635800000,-74.4648895263672
3660700000,-129.38444519043
3685600000,-74.7202835083008
3710500000,-115.994201660156
3735400000,-75.5494232177734
3760300000,-119.583831787109
3785200000,-75.9046783447266
3810100000,-114.794067382813
3835000000,-75.20068359375
3859900000,-114.697242736816
3884800000,-78.756706237793
3909700000,-117.965133666992
3934600000,-76.1552505493164
3959500000,-116.402496337891
3984400000,-78.2570037841797
4009300000,-109.86580657959
4034200000,-78.1132659912109
4059100000,-124.977279663086
4084000000,-79.1547775268555
4108900000,-124.9892578125
4133800000,-79.6151657104492
4158700000,-116.883285522461
4183600000,-79.3395004272461
4208500000,-122.297637939453
4233400000,-78.5803070068359
4258300000,-123.470916748047
4283200000,-77.901611328125
4308100000,-129.843688964844
4333000000,-75.7719879150391
4357900000,-118.911155700684
4382800000,-78.3521194458008
4407700000,-116.344734191895
4432600000,-77.7966461181641
4457500000,-112.474113464355
4482400000,-77.2056350708008
4507300000,-115.6748046875
4532200000,-79.4193801879883
4557100000,-112.671249389648
4582000000,-77.9860076904297
4606900000,-115.322212219238
4631800000,-77.3279647827148
4656700000,-112.61515045166
4681600000,-77.7331466674805
4706500000,-119.866630554199
4731400000,-78.1585540771484
4756300000,-117.034797668457
4781200000,-78.1753311157227
4806100000,-122.827667236328
4831000000,-77.2010498046875
4855900000,-125.857780456543
4880800000,-78.1238708496094
4905700000,-116.406097412109
4930600000,-77.4873352050781
4955500000,-116.066680908203
4980400000,-77.3542175292969
5005300000,-117.878730773926
5030200000,-76.1288223266602
5055100000,-116.827262878418
5080000000,-77.5279693603516
5104900000,-127.692260742188
5129800000,-77.255500793457
5154700000,-114.043952941895
5179600000,-77.58642578125
5204500000,-114.477958679199
5229400000,-76.8851470947266
5254300000,-120.239929199219
5279200000,-77.2610092163086
5304100000,-102.643508911133
5329000000,-77.9921112060547
5353900000,-106.664764404297
5378800000,-77.1293716430664
5403700000,-119.665504455566
5428600000,-76.3426818847656
5453500000,-117.117301940918
5478400000,-79.0259017944336
5503300000,-116.012664794922
5528200000,-74.9576034545898
5553100000,-115.648460388184
5578000000,-75.7658386230469
5602900000,-130.79817199707
5627800000,-77.3097457885742
5652700000,-115.907386779785
5677600000,-77.1009140014648
5702500000,-121.32795715332
5727400000,-74.8395309448242
5752300000,-111.118103027344
5777200000,-77.3895721435547
5802100000,-115.276191711426
5827000000,-79.1209030151367
5851900000,-121.700881958008
5876800000,-75.4081573486328
5901700000,-112.480751037598
5926600000,-74.8403091430664
5951500000,-127.153411865234
5976400000,-75.1881256103516
6001300000,-110.804077148438
6026200000,-75.7463226318359
6051100000,-110.960266113281
6076000000,-78.4909591674805
6100900000,-111.440979003906
6125800000,-76.8976669311523
6150700000,-112.045822143555
6175600000,-75.9843215942383
6200500000,-124.087738037109
6225400000,-77.2388229370117
6250300000,-106.973930358887
6275200000,-76.5798492431641
6300100000,-116.863441467285
6325000000,-76.5994873046875
6349900000,-121.883888244629
6374800000,-74.5780487060547
6399700000,-109.288185119629
6424600000,-75.8636856079102
6449500000,-119.74617767334
6474400000,-76.4446258544922
6499300000,-114.294761657715
6524200000,-77.4556121826172
6549100000,-123.495788574219
6574000000,-76.3186645507813
6598900000,-118.136474609375
6623800000,-77.450309753418
6648700000,-117.545379638672
6673600000,-76.841552734375
6698500000,-118.48413848877
6723400000,-75.573844909668
6748300000,-121.03084564209
6773200000,-76.2031021118164
6798100000,-117.539741516113
6823000000,-75.4100494384766
6847900000,-117.092971801758
6872800000,-77.160270690918
6897700000,-118.075721740723
6922600000,-76.9677352905273
6947500000,-111.626335144043
6972400000,-76.6850204467773
6997300000,-106.726791381836
7022200000,-76.3722686767578
7047100000,-117.249664306641
7072000000,-76.8283920288086
7096900000,-121.184852600098
7121800000,-76.2095642089844
7146700000,-116.008071899414
7171600000,-75.8454971313477
7196500000,-115.861572265625
7221400000,-74.9964447021484
7246300000,-129.574523925781
7271200000,-74.880973815918
7296100000,-117.184043884277
7321000000,-77.0360565185547
7345900000,-114.070739746094
7370800000,-76.7211227416992
7395700000,-112.703475952148
7420600000,-77.3584442138672
7445500000,-120.170768737793
7470400000,-74.7109756469727
7495300000,-113.270492553711
7520200000,-75.6662673950195
7545100000,-115.140480041504
7570000000,-76.108039855957
7594900000,-126.958030700684
7619800000,-75.9373626708984
7644700000,-115.153343200684
7669600000,-77.1898727416992
7694500000,-117.754783630371
7719400000,-77.7309951782227
7744300000,-112.601890563965
7769200000,-76.4606475830078
7794100000,-112.105850219727
7819000000,-76.3570785522461
7843900000,-118.50212097168
7868800000,-77.4783706665039
7893700000,-122.324966430664
7918600000,-76.7812576293945
7943500000,-117.836723327637
7968400000,-78.0778274536133
7993300000,-114.703796386719
8018200000,-77.5963745117188
8043100000,-112.797760009766
8068000000,-76.1337661743164
8092900000,-113.935554504395
8117800000,-77.9306106567383
8142700000,-110.136711120605
8167600000,-77.5746841430664
8192500000,-132.89111328125
8217400000,-78.0053863525391
8242300000,-116.711624145508
8267200000,-78.6552200317383
8292100000,-120.592239379883
8317000000,-77.2025604248047
8341900000,-113.597053527832
8366800000,-77.7237091064453
8391700000,-131.313552856445
8416600000,-77.5333480834961
8441500000,-109.398239135742
8466400000,-75.476676940918
8491300000,-118.87850189209
8516200000,-76.3860931396484
8541100000,-116.622543334961
8566000000,-77.229362487793
8590900000,-125.969772338867
8615800000,-77.9117202758789
8640700000,-110.306373596191
8665600000,-77.0976486206055
8690500000,-120.319374084473
8715400000,-77.7446212768555
8740300000,-113.783393859863
8765200000,-77.1377105712891
8790100000,-110.821044921875
8815000000,-78.1966705322266
8839900000,-107.758934020996
8864800000,-77.9112548828125
8889700000,-116.021339416504
8914600000,-77.6157150268555
8939500000,-112.750778198242
8964400000,-77.5994491577148
8989300000,-116.282783508301
9014200000,-77.8401794433594
9039100000,-113.837951660156
9064000000,-75.9491729736328
9088900000,-118.688339233398
9113800000,-76.6040725708008
9138700000,-113.554885864258
9163600000,-78.4025421142578
9188500000,-112.297737121582
9213400000,-77.5616149902344
9238300000,-110.654258728027
9263200000,-75.512451171875
9288100000,-125.91138458252
9313000000,-77.3263244628906
9337900000,-117.620185852051
9362800000,-77.3473587036133
9387700000,-112.719863891602
9412600000,-77.4277038574219
9437500000,-113.959411621094
9462400000,-77.1506271362305
9487300000,-126.390037536621
9512200000,-77.1303176879883
9537100000,-119.947860717773
9562000000,-77.8536605834961
9586900000,-124.115112304688
9611800000,-78.4324798583984
9636700000,-123.179382324219
9661600000,-76.6001281738281
9686500000,-112.08975982666
9711400000,-76.0891876220703
9736300000,-111.883163452148
9761200000,-77.6052627563477
9786100000,-114.30753326416
9811000000,-78.5002288818359
9835900000,-120.800506591797
9860800000,-76.4809112548828
9885700000,-115.460472106934
9910600000,-77.5480422973633
9935500000,-108.146392822266
9960400000,-76.4109725952148
9985300000,-121.700263977051
10010200000,-74.7476806640625
10035100000,-112.872840881348
10060000000,-78.2998580932617
10084900000,-115.274421691895
10109800000,-75.0806503295898
10134700000,-114.068939208984
10159600000,-76.2093276977539
10184500000,-107.45726776123
10209400000,-77.0624313354492
10234300000,-118.521125793457
10259200000,-76.2683486938477
10284100000,-110.744415283203
10309000000,-77.5700302124023
10333900000,-115.370880126953
10358800000,-75.6363983154297
10383700000,-121.978393554688
10408600000,-77.1779632568359
10433500000,-110.348419189453
10458400000,-75.8709106445313
10483300000,-119.87873840332
10508200000,-77.3461303710938
10533100000,-119.148216247559
10558000000,-74.9450912475586
10582900000,-109.618049621582
10607800000,-76.9538726806641
10632700000,-111.618705749512
10657600000,-75.4900436401367
10682500000,-107.934677124023
10707400000,-74.3535003662109
10732300000,-119.519302368164
10757200000,-77.0806655883789
10782100000,-120.697227478027
10807000000,-77.8911285400391
10831900000,-120.963264465332
10856800000,-76.2556991577148
10881700000,-117.49161529541
10906600000,-76.6038208007813
10931500000,-122.341011047363
10956400000,-76.1413192749023
10981300000,-109.507232666016
11006200000,-77.9594573974609
11031100000,-112.658851623535
11056000000,-74.1651916503906
11080900000,-120.481727600098
11105800000,-77.6747207641602
11130700000,-116.786682128906
11155600000,-74.605842590332
11180500000,-109.496421813965
11205400000,-75.1944808959961
11230300000,-109.96183013916
11255200000,-76.1344375610352
11280100000,-112.630180358887
11305000000,-77.4879837036133
11329900000,-121.352722167969
11354800000,-75.92333984375
11379700000,-121.046951293945
11404600000,-76.2266387939453
11429500000,-114.535720825195
11454400000,-75.7117538452148
11479300000,-117.804290771484
11504200000,-75.281379699707
11529100000,-118.468238830566
11554000000,-76.2654647827148
11578900000,-126.276023864746
11603800000,-77.3229751586914
11628700000,-116.865097045898
11653600000,-76.1492614746094
11678500000,-112.037567138672
11703400000,-75.0543899536133
11728300000,-116.092910766602
11753200000,-77.0057144165039
11778100000,-112.173568725586
11803000000,-75.632194519043
11827900000,-108.515487670898
11852800000,-76.4248123168945
11877700000,-117.848373413086
11902600000,-74.8942413330078
11927500000,-110.088851928711
11952400000,-77.0299072265625
11977300000,-131.810577392578
12002200000,-76.4213180541992
12027100000,-112.537155151367
12052000000,-75.3761749267578
12076900000,-127.286552429199
12101800000,-75.4856338500977
12126700000,-118.790664672852
12151600000,-75.2895584106445
12176500000,-118.103797912598
12201400000,-76.1805953979492
12226300000,-110.731269836426
12251200000,-74.944938659668
12276100000,-118.878631591797
12301000000,-74.2965774536133
12325900000,-112.024475097656
12350800000,-75.3922958374023
12375700000,-112.529029846191
12400600000,-76.7277297973633
12425500000,-118.680618286133
12450400000,-75.2393112182617
12475300000,-112.855628967285
12500200000,-74.9101791381836
12525100000,-124.347549438477
12550000000,-75.2352676391602
12574900000,-108.931213378906
12599800000,-74.9108505249023
12624700000,-109.330711364746
12649600000,-76.903694152832
12674500000,-117.570518493652
12699400000,-74.4883804321289
12724300000,-106.678123474121
12749200000,-74.2770690917969
12774100000,-123.248664855957
12799000000,-75.7613067626953
12823900000,-108.20565032959
12848800000,-74.5871887207031
12873700000,-112.97966003418
12898600000,-74.4558792114258
12923500000,-126.605628967285
12948400000,-76.2023315429688
12973300000,-110.040405273438
12998200000,-75.6697463989258
13023100000,-110.593322753906
13048000000,-76.4692001342773
13072900000,-108.885147094727
13097800000,-75.9387817382813
13122700000,-108.15111541748
13147600000,-75.7052536010742
13172500000,-110.855911254883
13197400000,-75.5555038452148
13222300000,-108.691261291504
13247200000,-75.6974411010742
13272100000,-125.092933654785
13297000000,-74.6884689331055
13321900000,-111.29460144043
13346800000,-76.4356994628906
13371700000,-111.812568664551
13396600000,-75.4978485107422
13421500000,-117.603797912598
13446400000,-76.2777252197266
13471300000,-108.483528137207
13496200000,-73.8424377441406
13521100000,-105.251564025879
13546000000,-75.4933319091797
13570900000,-117.108383178711
13595800000,-74.4842376708984
13620700000,-134.758819580078
13645600000,-76.7754974365234
13670500000,-113.416732788086
13695400000,-76.6150283813477
13720300000,-108.876617431641
13745200000,-75.8949508666992
13770100000,-116.346481323242
13795000000,-76.4211196899414
13819900000,-118.361801147461
13844800000,-76.1941452026367
13869700000,-116.799446105957
13894600000,-75.4424209594727
13919500000,-108.537406921387
13944400000,-76.36279296875
13969300000,-113.244514465332
13994200000,-75.0113067626953
14019100000,-105.544639587402
14044000000,-74.1417694091797
14068900000,-118.383338928223
14093800000,-75.4618377685547
14118700000,-116.543884277344
14143600000,-73.9997100830078
14168500000,-111.391639709473
14193400000,-75.0187225341797
14218300000,-120.503044128418
14243200000,-74.3437118530273
14268100000,-114.91552734375
14293000000,-73.9727325439453
14317900000,-111.07137298584
14342800000,-73.6911315917969
14367700000,-128.699295043945
14392600000,-73.014274597168
14417500000,-109.40503692627
14442400000,-75.0977783203125
14467300000,-108.899047851563
14492200000,-73.8096160888672
14517100000,-112.49568939209
14542000000,-75.4686050415039
14566900000,-115.997894287109
14591800000,-73.8767013549805
14616700000,-110.287971496582
14641600000,-70.8001327514648
14666500000,-107.528160095215
14691400000,-74.069221496582
14716300000,-113.820068359375
14741200000,-71.8209915161133
14766100000,-113.798698425293
14791000000,-73.4429321289063
14815900000,-120.958984375
14840800000,-73.3331146240234
14865700000,-111.030426025391
14890600000,-72.7176666259766
14915500000,-106.72737121582
14940400000,-72.0797882080078
14965300000,-109.911651611328
14990200000,-73.470832824707
15015100000,-108.553512573242
15040000000,-72.4938125610352
15064900000,-116.154151916504
15089800000,-73.1595916748047
15114700000,-109.364738464355
15139600000,-71.9666976928711
15164500000,-111.552276611328
15189400000,-71.8793716430664
15214300000,-117.050468444824
15239200000,-72.3832092285156
15264100000,-110.26197052002
15289000000,-71.4699478149414
15313900000,-119.17301940918
15338800000,-72.3407821655273
15363700000,-110.414291381836
15388600000,-73.4544525146484
15413500000,-106.34952545166
15438400000,-71.9348678588867
15463300000,-111.251976013184
15488200000,-72.1837005615234
15513100000,-109.50178527832
15538000000,-73.5643310546875
15562900000,-110.911811828613
15587800000,-72.9841537475586
15612700000,-107.344856262207
15637600000,-70.7900619506836
15662500000,-117.328964233398
15687400000,-72.9285202026367
15712300000,-108.571487426758
15737200000,-70.8214874267578
15762100000,-114.274620056152
15787000000,-73.1343536376953
15811900000,-118.651924133301
15836800000,-71.3675918579102
15861700000,-99.7993621826172
15886600000,-73.5155029296875
15911500000,-109.122299194336
15936400000,-74.6514358520508
15961300000,-104.747016906738
15986200000,-70.9385681152344
16011100000,-113.069633483887
16036000000,-73.6521224975586
16060900000,-104.211692810059
16085800000,-73.3893737792969
16110700000,-115.279235839844
16135600000,-73.4783477783203
16160500000,-109.133880615234
16185400000,-71.654655456543
16210300000,-119.28978729248
16235200000,-71.7050857543945
16260100000,-117.292152404785
16285000000,-72.8236465454102
16309900000,-108.46028137207
16334800000,-74.0126876831055
16359700000,-111.503349304199
16384600000,-73.0280380249023
16409500000,-128.394760131836
16434400000,-73.9818267822266
16459300000,-116.925941467285
16484200000,-73.4540176391602
16509100000,-121.849517822266
16534000000,-72.9656829833984
16558900000,-119.808807373047
16583800000,-72.9475173950195
16608700000,-108.337387084961
16633600000,-73.5907974243164
16658500000,-111.893768310547
16683400000,-73.4708023071289
16708300000,-107.127464294434
16733200000,-73.6093978881836
16758100000,-111.020278930664
16783000000,-70.7623291015625
16807900000,-110.862861633301
16832800000,-72.0121154785156
16857700000,-110.873558044434
16882600000,-73.2370223999023
16907500000,-107.210426330566
16932400000,-72.5988159179688
16957300000,-105.956916809082
16982200000,-70.0920257568359
17007100000,-108.255821228027
17032000000,-69.8333511352539
17056900000,-109.381767272949
17081800000,-71.3081130981445
17106700000,-107.504196166992
17131600000,-71.6463165283203
17156500000,-111.86612701416
17181400000,-72.4245071411133
17206300000,-113.380340576172
17231200000,-71.6146621704102
17256100000,-119.340728759766
17281000000,-70.444206237793
17305900000,-110.229911804199
17330800000,-70.4337463378906
17355700000,-105.151329040527
17380600000,-71.7497329711914
17405500000,-107.061828613281
17430400000,-70.8081970214844
17455300000,-117.931640625
17480200000,-72.1208953857422
17505100000,-110.120529174805
17530000000,-70.184455871582
17554900000,-107.863555908203
17579800000,-70.4321517944336
17604700000,-106.656074523926
17629600000,-71.4970932006836
17654500000,-118.480491638184
17679400000,-70.7901000976563
17704300000,-108.016334533691
17729200000,-71.6777038574219
17754100000,-116.576019287109
17779000000,-69.7836456298828
17803900000,-110.922019958496
17828800000,-70.9329071044922
17853700000,-109.573669433594
17878600000,-69.1411437988281
17903500000,-119.780876159668
17928400000,-71.9998397827148
17953300000,-102.445449829102
17978200000,-72.0294952392578
18003100000,-108.019462585449
18028000000,-71.8239669799805
18052900000,-109.033935546875
18077800000,-70.998161315918
18102700000,-112.006271362305
18127600000,-70.104736328125
18152500000,-111.880126953125
18177400000,-69.5523223876953
18202300000,-108.520248413086
18227200000,-69.7353286743164
18252100000,-105.800064086914
18277000000,-69.6881484985352
18301900000,-122.647605895996
18326800000,-68.9177932739258
18351700000,-117.608741760254
18376600000,-71.5634231567383
18401500000,-110.041694641113
18426400000,-71.4545135498047
18451300000,-109.271339416504
18476200000,-68.8098754882813
18501100000,-105.886177062988
18526000000,-69.0602111816406
18550900000,-110.960639953613
18575800000,-70.3659210205078
18600700000,-116.017463684082
18625600000,-71.2109832763672
18650500000,-110.28214263916
18675400000,-69.9536895751953
18700300000,-109.071884155273
18725200000,-71.0780410766602
18750100000,-111.970687866211
18775000000,-71.111946105957
18799900000,-117.801773071289
18824800000,-73.2654113769531
18849700000,-104.703300476074
18874600000,-72.1896438598633
18899500000,-100.052490234375
18924400000,-71.164665222168
18949300000,-111.558578491211
18974200000,-72.3177108764648
18999100000,-103.129371643066
19024000000,-71.7879943847656
19048900000,-112.881958007813
19073800000,-70.5400466918945
19098700000,-110.189682006836
19123600000,-70.8992080688477
19148500000,-122.951057434082
19173400000,-71.5907287597656
19198300000,-108.969566345215
19223200000,-70.4000701904297
19248100000,-104.210479736328
19273000000,-71.5052642822266
19297900000,-104.385780334473
19322800000,-71.293342590332
19347700000,-107.253211975098
19372600000,-72.8671569824219
19397500000,-116.26237487793
19422400000,-72.9855270385742
19447300000,-102.64518737793
19472200000,-72.0753173828125
19497100000,-118.277038574219
19522000000,-71.3312835693359
19546900000,-104.543579101563
19571800000,-71.8085479736328
19596700000,-109.121795654297
19621600000,-72.661376953125
19646500000,-110.164154052734
19671400000,-71.0904922485352
19696300000,-108.362037658691
19721200000,-71.9584045410156
19746100000,-109.618873596191
19771000000,-71.8042373657227
19795900000,-108.197608947754
19820800000,-70.6534271240234
19845700000,-122.856758117676
19870600000,-71.2444686889648
19895500000,-112.345031738281
19920400000,-72.8906707763672
19945300000,-106.65788269043
19970200000,-69.874641418457
19995100000,-111.945671081543
20020000000,-72.1014175415039
20044900000,-103.50855255127
20069800000,-72.1121826171875
20094700000,-123.810676574707
20119600000,-71.2187347412109
20144500000,-109.785377502441
20169400000,-72.1890869140625
20194300000,-108.282821655273
20219200000,-71.1084365844727
20244100000,-116.589416503906
20269000000,-71.2256317138672
20293900000,-121.262481689453
20318800000,-72.7178955078125
20343700000,-123.752883911133
20368600000,-70.7982330322266
20393500000,-101.228004455566
20418400000,-70.2533187866211
20443300000,-119.727035522461
20468200000,-70.7773208618164
20493100000,-107.939193725586
20518000000,-70.7961196899414
20542900000,-113.690567016602
20567800000,-70.625732421875
20592700000,-119.018989562988
20617600000,-70.3506546020508
20642500000,-101.337677001953
20667400000,-70.1975784301758
20692300000,-109.255668640137
20717200000,-70.2200012207031
20742100000,-119.702018737793
20767000000,-71.0023880004883
20791900000,-102.017761230469
20816800000,-68.9405822753906
20841700000,-109.257110595703
20866600000,-69.7889251708984
20891500000,-110.818031311035
20916400000,-69.2268905639648
20941300000,-103.2666015625
20966200000,-67.7827835083008
20991100000,-111.654472351074
21016000000,-70.3952941894531
21040900000,-100.795074462891
21065800000,-68.6862945556641
21090700000,-115.076309204102
21115600000,-69.4924240112305
21140500000,-102.596717834473
21165400000,-69.0529327392578
21190300000,-110.284606933594
21215200000,-69.9221649169922
21240100000,-105.211143493652
21265000000,-68.1294555664063
21289900000,-105.811393737793
21314800000,-69.8791427612305
21339700000,-117.92448425293
21364600000,-69.7441482543945
21389500000,-111.246643066406
21414400000,-69.4337921142578
21439300000,-100.994071960449
21464200000,-69.5555877685547
21489100000,-108.748710632324
21514000000,-69.5631332397461
21538900000,-112.993240356445
21563800000,-68.621955871582
21588700000,-106.557678222656
21613600000,-68.6557922363281
21638500000,-105.989944458008
21663400000,-69.9803695678711
21688300000,-102.871101379395
21713200000,-70.760368347168
21738100000,-117.607879638672
21763000000,-70.3392105102539
21787900000,-109.388832092285
21812800000,-70.2912139892578
21837700000,-107.044708251953
21862600000,-68.5318908691406
21887500000,-113.901779174805
21912400000,-69.8459396362305
21937300000,-106.468147277832
21962200000,-68.3694458007813
21987100000,-114.323120117188
22012000000,-68.0893020629883
22036900000,-107.657844543457
22061800000,-70.4255294799805
22086700000,-106.331886291504
22111600000,-71.0607528686523
22136500000,-115.227432250977
22161400000,-69.2027053833008
22186300000,-116.661903381348
22211200000,-70.4181594848633
22236100000,-102.877304077148
22261000000,-68.8246917724609
22285900000,-121.84147644043
22310800000,-70.1246719360352
22335700000,-113.395462036133
22360600000,-69.3596649169922
22385500000,-114.527412414551
22410400000,-69.4956665039063
22435300000,-110.705780029297
22460200000,-70.5679779052734
22485100000,-110.217819213867
22510000000,-70.3073043823242
22534900000,-107.197456359863
22559800000,-68.3127059936523
22584700000,-121.858276367188
22609600000,-68.6674499511719
22634500000,-106.308898925781
22659400000,-70.3361740112305
22684300000,-104.926307678223
22709200000,-68.7985229492188
22734100000,-98.6445159912109
22759000000,-68.6570892333984
22783900000,-102.910980224609
22808800000,-69.4213638305664
22833700000,-113.670394897461
22858600000,-70.1591796875
22883500000,-107.873153686523
22908400000,-66.9724349975586
22933300000,-106.091606140137
22958200000,-70.8322601318359
22983100000,-108.764923095703
23008000000,-69.0053329467773
23032900000,-106.988800048828
23057800000,-67.5985641479492
23082700000,-113.04190826416
23107600000,-68.717170715332
23132500000,-107.68424987793
23157400000,-68.4045791625977
23182300000,-112.036552429199
23207200000,-66.4766387939453
23232100000,-114.868064880371
23257000000,-65.3424301147461
23281900000,-131.525894165039
23306800000,-67.27587890625
23331700000,-100.728317260742
23356600000,-67.6454925537109
23381500000,-107.262542724609
23406400000,-67.3969192504883
23431300000,-104.151374816895
23456200000,-67.858283996582
23481100000,-113.588790893555
23506000000,-65.5685272216797
23530900000,-109.156639099121
23555800000,-66.9406967163086
23580700000,-111.132942199707
23605600000,-67.3184051513672
23630500000,-107.801086425781
23655400000,-67.3269500732422
23680300000,-112.959579467773
23705200000,-66.2812423706055
23730100000,-104.682098388672
23755000000,-65.5912475585938
23779900000,-100.400550842285
23804800000,-66.7216033935547
23829700000,-101.074264526367
23854600000,-68.94677734375
23879500000,-109.815925598145
23904400000,-68.5508728027344
23929300000,-106.768341064453
23954200000,-66.3270263671875
23979100000,-109.61247253418
24004000000,-66.7790451049805
24028900000,-106.587112426758
24053800000,-66.3196563720703
24078700000,-105.124252319336
24103600000,-64.8143539428711
24128500000,-111.32396697998
24153400000,-68.6242980957031
24178300000,-116.070137023926
24203200000,-66.3573760986328
24228100000,-110.612846374512
24253000000,-66.7277297973633
24277900000,-99.0643539428711
24302800000,-66.6295471191406
24327700000,-100.952049255371
24352600000,-65.894416809082
24377500000,-96.4385528564453
24402400000,-66.7025985717773
24427300000,-112.52986907959
24452200000,-66.6286239624023
24477100000,-97.504753112793
24502000000,-67.4487686157227
24526900000,-114.778656005859
24551800000,-68.1042861938477
24576700000,-105.744071960449
24601600000,-67.1690139770508
24626500000,-98.1659851074219
24651400000,-66.1418685913086
24676300000,-107.746284484863
24701200000,-66.373420715332
24726100000,-106.116973876953
24751000000,-66.5619812011719
24775900000,-106.24503326416
24800800000,-65.1121292114258
24825700000,-95.7621459960938
24850600000,-65.4771041870117
24875500000,-96.9252624511719
24900400000,-65.8296203613281
24925300000,-119.316925048828
24950200000,-64.6340637207031
24975100000,-103.905487060547
25000000000,-66.35791015625

